# WAVELENGTH_UNIT	AA
# COMPNAME       	HST_NIC3_F110W
# NAME           	HST_NIC3_F110W
# DETECTOR       	photon
#
## WAVELENGTH	None	AA
## THROUGHPUT	None	filter throughput definition
#
WAVELENGTH,THROUGHPUT
5994.999023,0.000000
5995.000000,0.000005
6000.000000,-0.000006
6005.000000,0.000005
6010.000000,-0.000011
6015.000000,-0.000021
6020.000000,-0.000016
6025.000000,-0.000010
6030.000000,-0.000003
6035.000000,-0.000023
6040.000000,-0.000019
6045.000000,-0.000018
6050.000000,-0.000021
6055.000000,-0.000007
6060.000000,-0.000010
6065.000000,-0.000010
6070.000000,-0.000014
6075.000000,-0.000015
6080.000000,-0.000018
6085.000000,-0.000007
6090.000000,-0.000009
6095.000000,-0.000025
6100.000000,-0.000018
6105.000000,-0.000012
6110.000000,-0.000020
6115.000000,-0.000013
6120.000000,-0.000004
6125.000000,-0.000011
6130.000000,-0.000006
6135.000000,-0.000005
6140.000000,-0.000002
6145.000000,-0.000011
6150.000000,-0.000011
6155.000000,-0.000005
6160.000000,-0.000006
6165.000000,-0.000019
6170.000000,-0.000014
6175.000000,-0.000019
6180.000000,-0.000001
6185.000000,-0.000005
6190.000000,-0.000009
6195.000000,-0.000020
6200.000000,0.000004
6205.000000,0.000004
6210.000000,-0.000000
6215.000000,-0.000016
6220.000000,0.000004
6225.000000,-0.000016
6230.000000,0.000001
6235.000000,-0.000012
6240.000000,0.000004
6245.000000,-0.000012
6250.000000,-0.000011
6255.000000,-0.000011
6260.000000,-0.000023
6265.000000,-0.000020
6270.000000,-0.000006
6275.000000,-0.000012
6280.000000,0.000003
6285.000000,-0.000011
6290.000000,-0.000020
6295.000000,-0.000007
6300.000000,-0.000017
6305.000000,-0.000019
6310.000000,-0.000006
6315.000000,-0.000012
6320.000000,-0.000009
6325.000000,-0.000016
6330.000000,-0.000025
6335.000000,-0.000020
6340.000000,-0.000026
6345.000000,-0.000000
6350.000000,-0.000028
6355.000000,-0.000012
6360.000000,0.000001
6365.000000,0.000005
6370.000000,-0.000033
6375.000000,-0.000003
6380.000000,-0.000007
6385.000000,-0.000027
6390.000000,0.000007
6395.000000,0.000002
6400.000000,-0.000008
6405.000000,-0.000038
6410.000000,-0.000029
6415.000000,0.000003
6420.000000,0.000001
6425.000000,-0.000003
6430.000000,-0.000000
6435.000000,0.000003
6440.000000,-0.000018
6445.000000,-0.000006
6450.000000,-0.000021
6455.000000,-0.000008
6460.000000,-0.000015
6465.000000,-0.000003
6470.000000,0.000005
6475.000000,-0.000008
6480.000000,-0.000029
6485.000000,-0.000015
6490.000000,-0.000002
6495.000000,0.000006
6500.000000,-0.000025
6505.000000,-0.000022
6510.000000,-0.000009
6515.000000,-0.000024
6520.000000,-0.000008
6525.000000,0.000017
6530.000000,-0.000004
6535.000000,-0.000004
6540.000000,-0.000004
6545.000000,-0.000001
6550.000000,0.000008
6555.000000,-0.000019
6560.000000,-0.000000
6565.000000,-0.000030
6570.000000,-0.000024
6575.000000,-0.000012
6580.000000,-0.000000
6585.000000,-0.000021
6590.000000,-0.000016
6595.000000,-0.000000
6600.000000,0.000005
6605.000000,-0.000007
6610.000000,-0.000008
6615.000000,-0.000003
6620.000000,-0.000003
6625.000000,0.000006
6630.000000,-0.000009
6635.000000,0.000009
6640.000000,-0.000011
6645.000000,-0.000009
6650.000000,0.000002
6655.000000,-0.000006
6660.000000,-0.000008
6665.000000,-0.000015
6670.000000,-0.000010
6675.000000,-0.000032
6680.000000,-0.000008
6685.000000,-0.000002
6690.000000,-0.000013
6695.000000,0.000006
6700.000000,-0.000010
6705.000000,0.000003
6710.000000,0.000008
6715.000000,-0.000000
6720.000000,-0.000024
6725.000000,-0.000001
6730.000000,-0.000018
6735.000000,0.000005
6740.000000,-0.000017
6745.000000,-0.000006
6750.000000,0.000008
6755.000000,-0.000018
6760.000000,-0.000004
6765.000000,0.000014
6770.000000,-0.000024
6775.000000,-0.000015
6780.000000,-0.000007
6785.000000,-0.000004
6790.000000,-0.000017
6795.000000,-0.000008
6800.000000,-0.000019
6805.000000,-0.000024
6810.000000,-0.000006
6815.000000,-0.000010
6820.000000,-0.000000
6825.000000,-0.000016
6830.000000,-0.000009
6835.000000,-0.000009
6840.000000,-0.000012
6845.000000,-0.000001
6850.000000,0.000002
6855.000000,-0.000011
6860.000000,-0.000023
6865.000000,-0.000004
6870.000000,0.000004
6875.000000,-0.000008
6880.000000,-0.000024
6885.000000,-0.000016
6890.000000,-0.000009
6895.000000,-0.000011
6900.000000,-0.000024
6905.000000,-0.000002
6910.000000,-0.000013
6915.000000,-0.000020
6920.000000,-0.000012
6925.000000,-0.000011
6930.000000,-0.000010
6935.000000,0.000001
6940.000000,-0.000013
6945.000000,-0.000004
6950.000000,0.000000
6955.000000,-0.000017
6960.000000,-0.000019
6965.000000,-0.000004
6970.000000,-0.000014
6975.000000,-0.000003
6980.000000,-0.000008
6985.000000,-0.000024
6990.000000,-0.000019
6995.000000,-0.000009
7000.000000,-0.000020
7005.000000,0.000003
7010.000000,-0.000008
7015.000000,-0.000006
7020.000000,0.000001
7025.000000,-0.000008
7030.000000,-0.000003
7035.000000,-0.000003
7040.000000,0.000005
7045.000000,-0.000036
7050.000000,-0.000010
7055.000000,-0.000013
7060.000000,-0.000030
7065.000000,-0.000024
7070.000000,-0.000004
7075.000000,-0.000012
7080.000000,-0.000004
7085.000000,-0.000014
7090.000000,-0.000009
7095.000000,-0.000013
7100.000000,-0.000009
7105.000000,-0.000014
7110.000000,-0.000008
7115.000000,-0.000020
7120.000000,-0.000015
7125.000000,-0.000017
7130.000000,-0.000015
7135.000000,-0.000006
7140.000000,0.000008
7145.000000,0.000000
7150.000000,0.000008
7155.000000,-0.000003
7160.000000,-0.000011
7165.000000,0.000006
7170.000000,-0.000016
7175.000000,-0.000008
7180.000000,0.000010
7185.000000,-0.000014
7190.000000,-0.000019
7195.000000,-0.000009
7200.000000,0.000001
7205.000000,-0.000011
7210.000000,-0.000003
7215.000000,0.000004
7220.000000,-0.000012
7225.000000,0.000000
7230.000000,-0.000001
7235.000000,-0.000006
7240.000000,0.000005
7245.000000,-0.000021
7250.000000,-0.000010
7255.000000,-0.000006
7260.000000,-0.000012
7265.000000,-0.000019
7270.000000,-0.000008
7275.000000,-0.000013
7280.000000,-0.000012
7285.000000,-0.000026
7290.000000,-0.000020
7295.000000,-0.000015
7300.000000,-0.000006
7305.000000,-0.000017
7310.000000,-0.000011
7315.000000,-0.000014
7320.000000,-0.000002
7325.000000,0.000002
7330.000000,0.000004
7335.000000,-0.000026
7340.000000,-0.000014
7345.000000,-0.000006
7350.000000,0.000008
7355.000000,0.000006
7360.000000,0.000003
7365.000000,-0.000021
7370.000000,-0.000003
7375.000000,-0.000017
7380.000000,-0.000016
7385.000000,-0.000007
7390.000000,-0.000007
7395.000000,-0.000012
7400.000000,-0.000006
7405.000000,-0.000011
7410.000000,-0.000009
7415.000000,-0.000023
7420.000000,0.000003
7425.000000,-0.000013
7430.000000,-0.000008
7435.000000,0.000000
7440.000000,0.000004
7445.000000,-0.000007
7450.000000,-0.000008
7455.000000,0.000004
7460.000000,0.000014
7465.000000,-0.000019
7470.000000,-0.000006
7475.000000,-0.000010
7480.000000,-0.000017
7485.000000,-0.000009
7490.000000,0.000008
7495.000000,-0.000023
7500.000000,-0.000008
7505.000000,-0.000001
7510.000000,-0.000018
7515.000000,-0.000003
7520.000000,-0.000041
7525.000000,-0.000018
7530.000000,0.000004
7535.000000,-0.000014
7540.000000,-0.000009
7545.000000,0.000001
7550.000000,0.000007
7555.000000,0.000005
7560.000000,0.000023
7565.000000,0.000000
7570.000000,0.000036
7575.000000,0.000021
7580.000000,0.000039
7585.000000,0.000065
7590.000000,0.000071
7595.000000,0.000126
7600.000000,0.000167
7605.000000,0.000236
7610.000000,0.000296
7615.000000,0.000399
7620.000000,0.000519
7625.000000,0.000641
7630.000000,0.000827
7635.000000,0.000992
7640.000000,0.001182
7645.000000,0.001381
7650.000000,0.001585
7655.000000,0.001771
7660.000000,0.001951
7665.000000,0.002115
7670.000000,0.002302
7675.000000,0.002431
7680.000000,0.002567
7685.000000,0.002686
7690.000000,0.002777
7695.000000,0.002895
7700.000000,0.002935
7705.000000,0.003037
7710.000000,0.003097
7715.000000,0.003174
7720.000000,0.003289
7725.000000,0.003397
7730.000000,0.003516
7735.000000,0.003666
7740.000000,0.003848
7745.000000,0.004067
7750.000000,0.004312
7755.000000,0.004547
7760.000000,0.004853
7765.000000,0.005184
7770.000000,0.005577
7775.000000,0.005977
7780.000000,0.006441
7785.000000,0.006973
7790.000000,0.007576
7795.000000,0.008287
7800.000000,0.009080
7805.000000,0.009959
7810.000000,0.011032
7815.000000,0.012258
7820.000000,0.013628
7825.000000,0.015246
7830.000000,0.017083
7835.000000,0.019134
7840.000000,0.021563
7845.000000,0.024172
7850.000000,0.027240
7855.000000,0.030722
7860.000000,0.034424
7865.000000,0.038691
7870.000000,0.043259
7875.000000,0.048035
7880.000000,0.053238
7885.000000,0.058470
7890.000000,0.063840
7895.000000,0.069336
7900.000000,0.074650
7905.000000,0.080053
7910.000000,0.085247
7915.000000,0.090339
7920.000000,0.095649
7925.000000,0.100615
7930.000000,0.105750
7935.000000,0.111087
7940.000000,0.116703
7945.000000,0.122590
7950.000000,0.128994
7955.000000,0.136044
7960.000000,0.144119
7965.000000,0.153004
7970.000000,0.163111
7975.000000,0.174724
7980.000000,0.187576
7985.000000,0.202303
7990.000000,0.218975
7995.000000,0.237544
8000.000000,0.259053
8005.000000,0.281872
8010.000000,0.307871
8015.000000,0.336029
8020.000000,0.366126
8025.000000,0.398087
8030.000000,0.431815
8035.000000,0.466508
8040.000000,0.502940
8045.000000,0.538112
8050.000000,0.572758
8055.000000,0.607589
8060.000000,0.639354
8065.000000,0.670056
8070.000000,0.698595
8075.000000,0.724296
8080.000000,0.747557
8085.000000,0.769640
8090.000000,0.787844
8095.000000,0.803635
8100.000000,0.816723
8105.000000,0.826111
8110.000000,0.832664
8115.000000,0.836558
8120.000000,0.839243
8125.000000,0.839698
8130.000000,0.839738
8135.000000,0.839345
8140.000000,0.838581
8145.000000,0.838611
8150.000000,0.839379
8155.000000,0.839391
8160.000000,0.839057
8165.000000,0.838681
8170.000000,0.837291
8175.000000,0.834426
8180.000000,0.830321
8185.000000,0.824419
8190.000000,0.816483
8195.000000,0.806693
8200.000000,0.796939
8205.000000,0.786093
8210.000000,0.775303
8215.000000,0.764063
8220.000000,0.754602
8225.000000,0.745594
8230.000000,0.737910
8235.000000,0.731571
8240.000000,0.727350
8245.000000,0.724021
8250.000000,0.721870
8255.000000,0.720874
8260.000000,0.720664
8265.000000,0.719890
8270.000000,0.719536
8275.000000,0.718461
8280.000000,0.715877
8285.000000,0.712533
8290.000000,0.709853
8295.000000,0.705912
8300.000000,0.702743
8305.000000,0.700135
8310.000000,0.698709
8315.000000,0.699382
8325.000000,0.707486
8330.000000,0.713764
8335.000000,0.722070
8340.000000,0.729949
8345.000000,0.737794
8350.000000,0.743928
8355.000000,0.748052
8360.000000,0.748222
8365.000000,0.745970
8370.000000,0.740476
8375.000000,0.733490
8380.000000,0.724985
8385.000000,0.717356
8390.000000,0.709434
8395.000000,0.704811
8400.000000,0.701793
8405.000000,0.700558
8410.000000,0.700477
8415.000000,0.701405
8420.000000,0.700638
8425.000000,0.697616
8430.000000,0.690809
8435.000000,0.679340
8440.000000,0.662946
8445.000000,0.643350
8450.000000,0.620745
8455.000000,0.596976
8460.000000,0.573558
8465.000000,0.553194
8470.000000,0.536660
8475.000000,0.526119
8480.000000,0.520305
8485.000000,0.522361
8490.000000,0.531416
8495.000000,0.547644
8500.000000,0.570616
8505.000000,0.598423
8510.000000,0.630274
8515.000000,0.662984
8520.000000,0.693793
8525.000000,0.719144
8530.000000,0.732991
8535.000000,0.737371
8540.000000,0.729013
8545.000000,0.709901
8550.000000,0.681988
8555.000000,0.650101
8560.000000,0.617052
8565.000000,0.586321
8570.000000,0.559910
8575.000000,0.538800
8580.000000,0.523403
8585.000000,0.516556
8590.000000,0.514873
8595.000000,0.519651
8600.000000,0.530334
8605.000000,0.546887
8610.000000,0.568139
8615.000000,0.592943
8620.000000,0.619257
8625.000000,0.646452
8630.000000,0.674631
8635.000000,0.699472
8640.000000,0.721132
8645.000000,0.741474
8650.000000,0.754781
8655.000000,0.767001
8660.000000,0.774854
8665.000000,0.779425
8670.000000,0.784673
8675.000000,0.789351
8680.000000,0.795245
8685.000000,0.801511
8690.000000,0.808103
8695.000000,0.816872
8700.000000,0.822359
8705.000000,0.827833
8710.000000,0.828133
8715.000000,0.821916
8720.000000,0.813015
8725.000000,0.798383
8730.000000,0.774408
8735.000000,0.750262
8740.000000,0.719931
8745.000000,0.689759
8750.000000,0.654744
8755.000000,0.627886
8760.000000,0.603941
8765.000000,0.580766
8770.000000,0.560488
8775.000000,0.543444
8780.000000,0.530722
8785.000000,0.517783
8790.000000,0.508043
8795.000000,0.497889
8800.000000,0.485882
8805.000000,0.475316
8810.000000,0.463648
8815.000000,0.450692
8820.000000,0.437270
8825.000000,0.423328
8830.000000,0.407213
8835.000000,0.391486
8840.000000,0.379260
8845.000000,0.367728
8850.000000,0.358657
8855.000000,0.352194
8860.000000,0.347470
8865.000000,0.346282
8870.000000,0.348446
8875.000000,0.354558
8880.000000,0.363604
8885.000000,0.375203
8890.000000,0.390066
8895.000000,0.407776
8900.000000,0.425282
8905.000000,0.441459
8910.000000,0.456494
8915.000000,0.468433
8920.000000,0.476181
8925.000000,0.478197
8930.000000,0.474916
8935.000000,0.467106
8940.000000,0.455281
8945.000000,0.441151
8950.000000,0.425512
8955.000000,0.409707
8960.000000,0.395806
8965.000000,0.385105
8970.000000,0.376696
8975.000000,0.372008
8980.000000,0.371432
8985.000000,0.374893
8990.000000,0.382760
8995.000000,0.395842
9000.000000,0.411293
9005.000000,0.432691
9010.000000,0.458413
9015.000000,0.488527
9020.000000,0.522520
9025.000000,0.557066
9030.000000,0.592868
9035.000000,0.628837
9040.000000,0.661165
9045.000000,0.693517
9050.000000,0.721065
9055.000000,0.741678
9060.000000,0.757164
9065.000000,0.768244
9070.000000,0.774036
9075.000000,0.777819
9080.000000,0.779087
9085.000000,0.779149
9090.000000,0.779550
9095.000000,0.780162
9100.000000,0.782113
9105.000000,0.785421
9110.000000,0.789270
9115.000000,0.794527
9120.000000,0.799914
9125.000000,0.805739
9130.000000,0.810352
9135.000000,0.815021
9140.000000,0.819016
9145.000000,0.822290
9150.000000,0.823940
9155.000000,0.825030
9160.000000,0.824946
9165.000000,0.824687
9170.000000,0.824073
9175.000000,0.823553
9180.000000,0.822924
9185.000000,0.822187
9190.000000,0.822147
9195.000000,0.821011
9200.000000,0.820233
9205.000000,0.818657
9210.000000,0.815631
9215.000000,0.811779
9220.000000,0.806672
9225.000000,0.800318
9230.000000,0.792470
9235.000000,0.782938
9240.000000,0.772334
9245.000000,0.760805
9250.000000,0.750529
9255.000000,0.739959
9260.000000,0.729724
9265.000000,0.721227
9270.000000,0.712943
9275.000000,0.706866
9280.000000,0.702687
9285.000000,0.700568
9290.000000,0.700406
9295.000000,0.701823
9300.000000,0.704595
9305.000000,0.709365
9310.000000,0.715171
9315.000000,0.721703
9320.000000,0.728795
9325.000000,0.735709
9330.000000,0.742795
9335.000000,0.750268
9340.000000,0.756385
9345.000000,0.762596
9350.000000,0.766941
9355.000000,0.771126
9360.000000,0.774471
9365.000000,0.777586
9370.000000,0.780001
9375.000000,0.781806
9380.000000,0.783404
9385.000000,0.784522
9390.000000,0.786266
9395.000000,0.787233
9400.000000,0.788087
9405.000000,0.788796
9410.000000,0.789345
9415.000000,0.789782
9420.000000,0.789683
9425.000000,0.788902
9430.000000,0.788810
9435.000000,0.787666
9440.000000,0.786890
9445.000000,0.786306
9450.000000,0.785761
9455.000000,0.785719
9460.000000,0.786229
9465.000000,0.786740
9470.000000,0.788149
9475.000000,0.789324
9480.000000,0.790737
9485.000000,0.792721
9490.000000,0.794234
9495.000000,0.795630
9500.000000,0.796538
9505.000000,0.796363
9510.000000,0.795452
9515.000000,0.793559
9520.000000,0.791436
9525.000000,0.787943
9530.000000,0.783812
9535.000000,0.779881
9540.000000,0.775899
9545.000000,0.771862
9550.000000,0.768730
9555.000000,0.766300
9560.000000,0.764936
9565.000000,0.764972
9570.000000,0.765931
9575.000000,0.768224
9580.000000,0.771819
9585.000000,0.776744
9590.000000,0.782470
9595.000000,0.788769
9600.000000,0.794930
9605.000000,0.800948
9610.000000,0.806834
9615.000000,0.812077
9620.000000,0.816608
9625.000000,0.820538
9630.000000,0.822750
9635.000000,0.823935
9640.000000,0.824787
9645.000000,0.824605
9650.000000,0.824282
9655.000000,0.823791
9660.000000,0.823442
9665.000000,0.823024
9670.000000,0.823297
9675.000000,0.823780
9680.000000,0.825399
9685.000000,0.826983
9690.000000,0.828715
9695.000000,0.830809
9700.000000,0.832795
9705.000000,0.834372
9710.000000,0.835989
9715.000000,0.836658
9720.000000,0.836561
9725.000000,0.836324
9730.000000,0.835383
9735.000000,0.833867
9740.000000,0.832221
9745.000000,0.830558
9750.000000,0.828989
9755.000000,0.828176
9760.000000,0.828155
9765.000000,0.828903
9770.000000,0.830418
9775.000000,0.832806
9780.000000,0.836165
9785.000000,0.839780
9790.000000,0.844076
9795.000000,0.848109
9800.000000,0.852123
9805.000000,0.855748
9810.000000,0.858349
9815.000000,0.859519
9820.000000,0.860020
9825.000000,0.858187
9830.000000,0.855914
9835.000000,0.852221
9840.000000,0.847297
9845.000000,0.841741
9850.000000,0.836348
9855.000000,0.831102
9860.000000,0.826573
9865.000000,0.821975
9870.000000,0.819146
9875.000000,0.817831
9880.000000,0.817164
9885.000000,0.818284
9890.000000,0.820732
9895.000000,0.824087
9900.000000,0.828540
9905.000000,0.833542
9910.000000,0.838816
9915.000000,0.844098
9920.000000,0.848909
9925.000000,0.852981
9930.000000,0.856489
9935.000000,0.859035
9940.000000,0.859882
9945.000000,0.860184
9950.000000,0.859309
9955.000000,0.857840
9960.000000,0.856134
9965.000000,0.853951
9970.000000,0.851469
9975.000000,0.849997
9980.000000,0.848570
9985.000000,0.847671
9990.000000,0.847684
9995.000000,0.848080
10000.000000,0.849616
10005.000000,0.851322
10010.000000,0.853089
10015.000000,0.855184
10020.000000,0.857263
10025.000000,0.858964
10030.000000,0.860722
10035.000000,0.861124
10040.000000,0.861742
10045.000000,0.861448
10050.000000,0.860537
10055.000000,0.859412
10060.000000,0.857711
10065.000000,0.855696
10070.000000,0.854276
10075.000000,0.852957
10080.000000,0.851861
10085.000000,0.851287
10090.000000,0.851214
10095.000000,0.851065
10100.000000,0.851819
10105.000000,0.852290
10110.000000,0.853158
10115.000000,0.853627
10120.000000,0.853336
10125.000000,0.852536
10130.000000,0.850687
10135.000000,0.847669
10140.000000,0.843633
10145.000000,0.838838
10150.000000,0.832186
10155.000000,0.824893
10160.000000,0.816527
10165.000000,0.808085
10170.000000,0.799927
10175.000000,0.791844
10180.000000,0.783712
10185.000000,0.776552
10190.000000,0.769599
10195.000000,0.764602
10200.000000,0.760812
10205.000000,0.757833
10210.000000,0.756251
10215.000000,0.755810
10220.000000,0.756346
10225.000000,0.757707
10230.000000,0.759664
10235.000000,0.761746
10250.000000,0.768725
10255.000000,0.770680
10260.000000,0.771484
10265.000000,0.772157
10270.000000,0.771919
10275.000000,0.771298
10280.000000,0.769884
10285.000000,0.768598
10290.000000,0.766872
10295.000000,0.765186
10300.000000,0.763576
10305.000000,0.762520
10310.000000,0.761656
10315.000000,0.761180
10320.000000,0.761357
10325.000000,0.761923
10330.000000,0.763212
10335.000000,0.764554
10340.000000,0.767056
10345.000000,0.768752
10350.000000,0.771362
10355.000000,0.773972
10360.000000,0.776040
10365.000000,0.778891
10370.000000,0.780918
10375.000000,0.783158
10380.000000,0.785939
10385.000000,0.787962
10390.000000,0.790835
10395.000000,0.793517
10400.000000,0.796557
10405.000000,0.799892
10410.000000,0.804512
10415.000000,0.808752
10420.000000,0.813736
10425.000000,0.819003
10430.000000,0.823886
10435.000000,0.828897
10440.000000,0.833973
10445.000000,0.837726
10450.000000,0.840327
10455.000000,0.841076
10460.000000,0.839963
10465.000000,0.836791
10470.000000,0.831036
10475.000000,0.822440
10480.000000,0.811567
10485.000000,0.799228
10490.000000,0.784317
10495.000000,0.769106
10500.000000,0.752047
10505.000000,0.733728
10510.000000,0.715336
10515.000000,0.699610
10520.000000,0.684159
10525.000000,0.670005
10530.000000,0.656745
10535.000000,0.645347
10540.000000,0.635995
10545.000000,0.629200
10550.000000,0.624728
10555.000000,0.621877
10560.000000,0.621137
10565.000000,0.622792
10570.000000,0.625928
10575.000000,0.630976
10580.000000,0.637562
10585.000000,0.645596
10590.000000,0.654682
10595.000000,0.664850
10600.000000,0.676474
10605.000000,0.687756
10610.000000,0.698824
10615.000000,0.710108
10620.000000,0.720791
