# WAVELENGTH_UNIT	AA
# COMPNAME       	HST_NIC3_F150W
# NAME           	HST_NIC3_F150W
# DETECTOR       	photon
#
## WAVELENGTH	None	AA
## THROUGHPUT	None	filter throughput definition
#
WAVELENGTH,THROUGHPUT
8994.999023,0.000000
8995.000000,-0.000046
9000.000000,-0.000246
9005.000000,-0.000276
9010.000000,-0.000567
9015.000000,0.000087
9020.000000,-0.000321
9025.000000,-0.000253
9030.000000,-0.000071
9035.000000,-0.000225
9040.000000,0.000001
9045.000000,-0.000182
9050.000000,-0.000728
9055.000000,-0.000690
9060.000000,-0.000117
9065.000000,0.000227
9070.000000,-0.000432
9075.000000,-0.000284
9080.000000,-0.000145
9085.000000,-0.000842
9090.000000,-0.000335
9095.000000,-0.000277
9100.000000,-0.000002
9105.000000,-0.000109
9110.000000,-0.000134
9115.000000,-0.000238
9120.000000,-0.000157
9125.000000,-0.000310
9130.000000,-0.000382
9135.000000,-0.000151
9140.000000,-0.000299
9145.000000,-0.000099
9150.000000,-0.000048
9155.000000,-0.000170
9160.000000,-0.000263
9165.000000,-0.000354
9170.000000,-0.000327
9175.000000,0.000143
9180.000000,-0.000135
9185.000000,-0.000134
9190.000000,-0.000246
9195.000000,-0.000288
9200.000000,-0.000351
9205.000000,-0.000088
9210.000000,-0.000301
9215.000000,-0.000320
9220.000000,-0.000058
9225.000000,-0.000043
9230.000000,-0.000352
9235.000000,-0.000251
9240.000000,-0.000428
9245.000000,0.000151
9250.000000,-0.000277
9255.000000,-0.000222
9260.000000,-0.000180
9265.000000,-0.000119
9270.000000,-0.000129
9275.000000,-0.000167
9280.000000,-0.000194
9285.000000,-0.000125
9290.000000,-0.000028
9295.000000,-0.000179
9300.000000,-0.000140
9305.000000,-0.000112
9310.000000,-0.000296
9315.000000,-0.000202
9320.000000,-0.000091
9325.000000,-0.000187
9330.000000,-0.000072
9335.000000,-0.000647
9340.000000,-0.000218
9345.000000,-0.000269
9350.000000,-0.000092
9355.000000,-0.000265
9360.000000,-0.000263
9365.000000,-0.000017
9370.000000,-0.000395
9375.000000,-0.000274
9380.000000,-0.000271
9385.000000,-0.000153
9390.000000,-0.000198
9395.000000,-0.000117
9400.000000,0.000113
9405.000000,-0.000261
9410.000000,-0.000163
9415.000000,-0.000306
9420.000000,-0.000001
9425.000000,-0.000144
9430.000000,-0.000222
9435.000000,-0.000252
9440.000000,-0.000423
9445.000000,-0.000264
9450.000000,-0.000354
9455.000000,0.000031
9460.000000,-0.000151
9465.000000,0.000108
9470.000000,-0.000269
9475.000000,-0.000132
9480.000000,-0.000265
9485.000000,-0.000000
9490.000000,-0.000291
9495.000000,-0.000128
9500.000000,-0.000475
9505.000000,-0.000126
9510.000000,-0.000139
9515.000000,0.000118
9520.000000,-0.000179
9525.000000,-0.000234
9530.000000,-0.000121
9535.000000,-0.000064
9540.000000,-0.000201
9545.000000,-0.000378
9550.000000,-0.000225
9555.000000,-0.000013
9560.000000,-0.000195
9565.000000,-0.000200
9570.000000,-0.000232
9575.000000,-0.000191
9580.000000,-0.000092
9585.000000,-0.000209
9590.000000,-0.000186
9595.000000,-0.000017
9600.000000,-0.000197
9605.000000,-0.000144
9610.000000,0.000072
9615.000000,-0.000054
9620.000000,-0.000128
9625.000000,-0.000152
9630.000000,-0.000287
9635.000000,-0.000444
9640.000000,-0.000258
9645.000000,-0.000074
9650.000000,-0.000398
9655.000000,-0.000157
9660.000000,-0.000311
9665.000000,-0.000167
9670.000000,-0.000106
9675.000000,-0.000164
9680.000000,-0.000210
9685.000000,-0.000138
9690.000000,-0.000068
9695.000000,-0.000205
9700.000000,-0.000181
9705.000000,-0.000044
9710.000000,-0.000269
9715.000000,-0.000257
9720.000000,-0.000056
9725.000000,-0.000177
9730.000000,-0.000011
9735.000000,0.000045
9740.000000,-0.000233
9745.000000,-0.000152
9750.000000,-0.000174
9755.000000,-0.000066
9760.000000,-0.000095
9765.000000,-0.000347
9770.000000,-0.000193
9775.000000,-0.000051
9780.000000,-0.000180
9785.000000,-0.000032
9790.000000,-0.000243
9795.000000,-0.000028
9800.000000,-0.000295
9805.000000,-0.000053
9810.000000,-0.000170
9815.000000,-0.000238
9820.000000,-0.000184
9825.000000,-0.000246
9830.000000,0.000037
9835.000000,-0.000130
9840.000000,-0.000015
9845.000000,-0.000107
9850.000000,-0.000031
9855.000000,0.000079
9860.000000,-0.000105
9865.000000,-0.000071
9870.000000,0.000142
9875.000000,0.000118
9880.000000,0.000008
9885.000000,0.000168
9890.000000,0.000137
9895.000000,-0.000031
9900.000000,0.000246
9905.000000,0.000078
9910.000000,0.000068
9915.000000,0.000290
9920.000000,0.000270
9925.000000,0.000307
9930.000000,0.000267
9935.000000,0.000134
9940.000000,0.000048
9945.000000,0.000180
9950.000000,0.000151
9955.000000,0.000130
9960.000000,0.000169
9965.000000,0.000187
9970.000000,0.000103
9975.000000,0.000174
9980.000000,0.000073
9985.000000,0.000193
9990.000000,0.000084
9995.000000,0.000174
10000.000000,0.000039
10005.000000,0.000040
10010.000000,0.000195
10015.000000,0.000128
10020.000000,0.000158
10025.000000,0.000023
10030.000000,0.000171
10035.000000,0.000122
10040.000000,0.000187
10045.000000,0.000112
10050.000000,0.000180
10055.000000,0.000330
10060.000000,0.000134
10065.000000,0.000286
10070.000000,0.000329
10075.000000,0.000317
10080.000000,0.000393
10085.000000,0.000566
10090.000000,0.000431
10095.000000,0.000594
10100.000000,0.000568
10105.000000,0.000549
10110.000000,0.000490
10115.000000,0.000684
10120.000000,0.000641
10125.000000,0.000752
10130.000000,0.000974
10135.000000,0.000947
10140.000000,0.000880
10145.000000,0.001076
10150.000000,0.001168
10155.000000,0.001306
10160.000000,0.001247
10165.000000,0.001462
10170.000000,0.001541
10175.000000,0.001438
10180.000000,0.001601
10185.000000,0.001676
10190.000000,0.001764
10195.000000,0.001950
10200.000000,0.002209
10205.000000,0.002229
10210.000000,0.002424
10215.000000,0.002497
10220.000000,0.002384
10225.000000,0.002490
10230.000000,0.002655
10235.000000,0.002850
10240.000000,0.002879
10245.000000,0.003020
10250.000000,0.003160
10255.000000,0.003168
10260.000000,0.003270
10265.000000,0.003591
10270.000000,0.003461
10275.000000,0.003505
10280.000000,0.003787
10285.000000,0.003738
10290.000000,0.003880
10295.000000,0.004044
10300.000000,0.004103
10305.000000,0.004135
10310.000000,0.004274
10315.000000,0.004234
10320.000000,0.004372
10325.000000,0.004410
10330.000000,0.004659
10335.000000,0.004625
10340.000000,0.004677
10345.000000,0.004671
10350.000000,0.004686
10355.000000,0.004887
10360.000000,0.004893
10365.000000,0.004949
10370.000000,0.005014
10375.000000,0.005084
10380.000000,0.005145
10385.000000,0.005237
10390.000000,0.005325
10395.000000,0.005560
10400.000000,0.005588
10405.000000,0.005680
10410.000000,0.005733
10415.000000,0.005815
10420.000000,0.005929
10425.000000,0.006105
10430.000000,0.006180
10435.000000,0.006277
10440.000000,0.006559
10445.000000,0.006731
10450.000000,0.006692
10455.000000,0.007029
10460.000000,0.007232
10465.000000,0.007355
10470.000000,0.007631
10475.000000,0.007778
10480.000000,0.008057
10485.000000,0.008382
10490.000000,0.008716
10495.000000,0.008957
10500.000000,0.009308
10505.000000,0.009571
10510.000000,0.010095
10515.000000,0.010505
10520.000000,0.010993
10525.000000,0.011482
10530.000000,0.011896
10535.000000,0.012502
10540.000000,0.012865
10545.000000,0.013555
10550.000000,0.014262
10555.000000,0.015034
10560.000000,0.015772
10565.000000,0.016582
10570.000000,0.017382
10575.000000,0.018287
10580.000000,0.019207
10585.000000,0.020348
10590.000000,0.021437
10595.000000,0.022520
10600.000000,0.023881
10605.000000,0.024960
10610.000000,0.026378
10615.000000,0.027799
10620.000000,0.029255
10625.000000,0.030557
10630.000000,0.032175
10635.000000,0.033847
10640.000000,0.035276
10645.000000,0.036911
10650.000000,0.038499
10655.000000,0.040168
10660.000000,0.041691
10665.000000,0.043174
10670.000000,0.044613
10675.000000,0.046155
10680.000000,0.047510
10685.000000,0.048926
10690.000000,0.050212
10695.000000,0.051416
10700.000000,0.052611
10705.000000,0.053632
10710.000000,0.054605
10715.000000,0.055626
10720.000000,0.056378
10725.000000,0.057410
10730.000000,0.058160
10735.000000,0.058948
10740.000000,0.059670
10745.000000,0.060452
10750.000000,0.061215
10755.000000,0.061954
10760.000000,0.062709
10765.000000,0.063432
10770.000000,0.064298
10775.000000,0.065383
10780.000000,0.066208
10785.000000,0.067125
10790.000000,0.068229
10795.000000,0.069367
10800.000000,0.070561
10805.000000,0.071951
10810.000000,0.073475
10815.000000,0.074971
10820.000000,0.076541
10825.000000,0.078552
10830.000000,0.080466
10835.000000,0.082605
10840.000000,0.085098
10845.000000,0.087434
10850.000000,0.090267
10855.000000,0.093045
10860.000000,0.096091
10865.000000,0.099664
10870.000000,0.103479
10875.000000,0.107569
10880.000000,0.111827
10885.000000,0.116304
10890.000000,0.121247
10895.000000,0.126675
10900.000000,0.132718
10905.000000,0.139161
10910.000000,0.145900
10915.000000,0.153124
10920.000000,0.160643
10925.000000,0.169139
10930.000000,0.178573
10935.000000,0.188512
10940.000000,0.199332
10945.000000,0.210315
10950.000000,0.222267
10955.000000,0.234928
10960.000000,0.248987
10965.000000,0.264182
10970.000000,0.279820
10975.000000,0.296030
10980.000000,0.312718
10985.000000,0.330979
10990.000000,0.350177
10995.000000,0.370502
11000.000000,0.391540
11005.000000,0.412241
11010.000000,0.433073
11015.000000,0.454727
11020.000000,0.476210
11025.000000,0.498144
11030.000000,0.520574
11035.000000,0.540933
11040.000000,0.560318
11045.000000,0.579117
11050.000000,0.597128
11055.000000,0.613845
11060.000000,0.629577
11065.000000,0.643684
11070.000000,0.655560
11075.000000,0.666033
11080.000000,0.675032
11085.000000,0.682896
11090.000000,0.689250
11095.000000,0.694490
11100.000000,0.697957
11105.000000,0.700728
11110.000000,0.702778
11115.000000,0.703651
11120.000000,0.704061
11125.000000,0.704329
11130.000000,0.703793
11135.000000,0.703068
11140.000000,0.702474
11145.000000,0.701494
11150.000000,0.700409
11155.000000,0.699818
11160.000000,0.699173
11165.000000,0.698432
11170.000000,0.698652
11175.000000,0.698440
11180.000000,0.698653
11185.000000,0.699423
11190.000000,0.700288
11195.000000,0.701341
11200.000000,0.702751
11205.000000,0.704459
11210.000000,0.706516
11215.000000,0.708894
11220.000000,0.711714
11225.000000,0.714451
11230.000000,0.717474
11235.000000,0.720721
11240.000000,0.723958
11245.000000,0.727922
11250.000000,0.731634
11255.000000,0.735151
11260.000000,0.739156
11265.000000,0.742923
11270.000000,0.746588
11275.000000,0.750460
11280.000000,0.754799
11285.000000,0.758345
11290.000000,0.761992
11295.000000,0.765530
11300.000000,0.768745
11305.000000,0.772182
11310.000000,0.775248
11315.000000,0.778218
11320.000000,0.781127
11325.000000,0.783515
11330.000000,0.785826
11335.000000,0.788029
11340.000000,0.790099
11345.000000,0.791828
11350.000000,0.793388
11355.000000,0.794731
11360.000000,0.795883
11365.000000,0.796935
11370.000000,0.797834
11375.000000,0.798295
11380.000000,0.798951
11385.000000,0.799387
11390.000000,0.799530
11395.000000,0.799794
11400.000000,0.800007
11405.000000,0.799739
11410.000000,0.799725
11415.000000,0.799504
11420.000000,0.799340
11425.000000,0.799533
11430.000000,0.799223
11435.000000,0.798836
11440.000000,0.798692
11445.000000,0.798751
11450.000000,0.798412
11455.000000,0.798410
11460.000000,0.798507
11465.000000,0.798474
11470.000000,0.798584
11475.000000,0.799096
11480.000000,0.799507
11485.000000,0.799927
11490.000000,0.800480
11495.000000,0.801056
11500.000000,0.802003
11505.000000,0.802995
11510.000000,0.803870
11515.000000,0.804915
11520.000000,0.806377
11525.000000,0.807462
11530.000000,0.808946
11535.000000,0.810781
11540.000000,0.812126
11545.000000,0.813910
11550.000000,0.816013
11555.000000,0.817764
11560.000000,0.819629
11565.000000,0.822038
11570.000000,0.824067
11575.000000,0.825973
11580.000000,0.828309
11585.000000,0.830364
11590.000000,0.832545
11595.000000,0.835106
11600.000000,0.837083
11605.000000,0.839224
11610.000000,0.841437
11615.000000,0.843289
11620.000000,0.845089
11625.000000,0.847425
11630.000000,0.849242
11635.000000,0.850717
11640.000000,0.852434
11645.000000,0.853805
11650.000000,0.855226
11655.000000,0.856672
11660.000000,0.857691
11665.000000,0.858601
11670.000000,0.859679
11675.000000,0.860243
11680.000000,0.860603
11685.000000,0.861407
11690.000000,0.861477
11695.000000,0.861613
11700.000000,0.861525
11705.000000,0.861584
11710.000000,0.860985
11715.000000,0.860633
11720.000000,0.860047
11725.000000,0.859017
11730.000000,0.858451
11735.000000,0.857401
11740.000000,0.856232
11745.000000,0.855190
11750.000000,0.853489
11755.000000,0.852353
11760.000000,0.850812
11765.000000,0.849273
11770.000000,0.847575
11775.000000,0.845949
11780.000000,0.844420
11785.000000,0.842377
11790.000000,0.840688
11795.000000,0.838688
11800.000000,0.836955
11805.000000,0.835244
11810.000000,0.833138
11815.000000,0.831034
11820.000000,0.828977
11825.000000,0.827051
11830.000000,0.824874
11835.000000,0.823359
11840.000000,0.821392
11845.000000,0.819190
11850.000000,0.817448
11855.000000,0.815680
11860.000000,0.813666
11865.000000,0.812082
11870.000000,0.810501
11875.000000,0.808465
11880.000000,0.806934
11885.000000,0.805213
11890.000000,0.803762
11895.000000,0.802271
11900.000000,0.801033
11905.000000,0.799580
11910.000000,0.798459
11915.000000,0.797247
11920.000000,0.796221
11925.000000,0.795357
11930.000000,0.794645
11935.000000,0.793889
11940.000000,0.793200
11945.000000,0.792802
11950.000000,0.792190
11955.000000,0.791999
11960.000000,0.791725
11965.000000,0.791590
11970.000000,0.791552
11975.000000,0.791772
11980.000000,0.791690
11985.000000,0.792158
11990.000000,0.792658
11995.000000,0.793040
12000.000000,0.794136
12005.000000,0.794807
12010.000000,0.795285
12015.000000,0.795885
12020.000000,0.796733
12025.000000,0.797409
12030.000000,0.798459
12035.000000,0.799515
12040.000000,0.800544
12045.000000,0.801835
12050.000000,0.803042
12055.000000,0.804394
12060.000000,0.805715
12065.000000,0.807481
12070.000000,0.808949
12075.000000,0.810474
12080.000000,0.812358
12085.000000,0.813862
12090.000000,0.815426
12095.000000,0.817322
12100.000000,0.819061
12105.000000,0.820873
12110.000000,0.822974
12115.000000,0.824621
12120.000000,0.826650
12125.000000,0.828380
12130.000000,0.830463
12135.000000,0.832247
12140.000000,0.834287
12145.000000,0.836201
12150.000000,0.837806
12155.000000,0.840028
12160.000000,0.841567
12165.000000,0.843190
12170.000000,0.845018
12175.000000,0.846609
12180.000000,0.848209
12185.000000,0.849751
12190.000000,0.851133
12195.000000,0.852563
12200.000000,0.854004
12205.000000,0.855087
12210.000000,0.856206
12215.000000,0.857478
12220.000000,0.858255
12225.000000,0.859307
12230.000000,0.860143
12235.000000,0.860880
12240.000000,0.861301
12245.000000,0.861809
12250.000000,0.862385
12255.000000,0.862511
12260.000000,0.862778
12265.000000,0.862892
12270.000000,0.862739
12275.000000,0.862853
12280.000000,0.862622
12285.000000,0.861924
12290.000000,0.861714
12295.000000,0.861004
12300.000000,0.860258
12305.000000,0.859537
12310.000000,0.858672
12315.000000,0.857196
12320.000000,0.856033
12325.000000,0.854468
12330.000000,0.852701
12335.000000,0.851081
12340.000000,0.848998
12345.000000,0.846896
12350.000000,0.844868
12355.000000,0.842323
12360.000000,0.839784
12365.000000,0.837140
12370.000000,0.834439
12375.000000,0.831409
12380.000000,0.828418
12385.000000,0.825285
12390.000000,0.821836
12395.000000,0.818584
12400.000000,0.815148
12405.000000,0.811415
12410.000000,0.807647
12415.000000,0.803909
12420.000000,0.799896
12425.000000,0.796509
12430.000000,0.792330
12435.000000,0.788464
12440.000000,0.784598
12445.000000,0.780759
12450.000000,0.776492
12455.000000,0.772553
12460.000000,0.768460
12465.000000,0.764224
12470.000000,0.760747
12475.000000,0.756451
12480.000000,0.752154
12485.000000,0.748384
12490.000000,0.744630
12495.000000,0.740732
12500.000000,0.736920
12505.000000,0.733221
12510.000000,0.729394
12515.000000,0.725618
12520.000000,0.722161
12525.000000,0.718390
12530.000000,0.715090
12535.000000,0.711883
12540.000000,0.708319
12545.000000,0.705048
12550.000000,0.701906
12555.000000,0.698791
12560.000000,0.695907
12565.000000,0.693012
12570.000000,0.689768
12575.000000,0.687008
12580.000000,0.684481
12585.000000,0.681755
12590.000000,0.679376
12595.000000,0.677250
12600.000000,0.674733
12605.000000,0.672668
12610.000000,0.670627
12615.000000,0.668615
12620.000000,0.666911
12625.000000,0.665388
12630.000000,0.663665
12635.000000,0.662286
12640.000000,0.661157
12645.000000,0.659849
12650.000000,0.658839
12655.000000,0.658149
12660.000000,0.657365
12665.000000,0.656727
12670.000000,0.656354
12675.000000,0.655910
12680.000000,0.655778
12685.000000,0.655696
12690.000000,0.655654
12695.000000,0.655747
12700.000000,0.656242
12705.000000,0.656428
12710.000000,0.656863
12715.000000,0.657643
12720.000000,0.658364
12725.000000,0.659040
12730.000000,0.660250
12735.000000,0.661134
12740.000000,0.662242
12745.000000,0.663473
12750.000000,0.664502
12755.000000,0.665887
12760.000000,0.667479
12765.000000,0.668855
12770.000000,0.670454
12775.000000,0.672065
12780.000000,0.673510
12785.000000,0.675307
12790.000000,0.677191
12795.000000,0.679033
12800.000000,0.680906
12805.000000,0.683088
12810.000000,0.685091
12815.000000,0.686873
12820.000000,0.689127
12825.000000,0.691271
12830.000000,0.693492
12835.000000,0.695790
12840.000000,0.697886
12845.000000,0.700156
12850.000000,0.702571
12855.000000,0.704731
12860.000000,0.707228
12865.000000,0.709583
12870.000000,0.712054
12875.000000,0.714076
12880.000000,0.716588
12885.000000,0.718905
12890.000000,0.721130
12895.000000,0.723773
12900.000000,0.725992
12905.000000,0.728226
12910.000000,0.730581
12915.000000,0.732683
12920.000000,0.734945
12925.000000,0.737177
12930.000000,0.739190
12935.000000,0.741083
12940.000000,0.743211
12945.000000,0.744924
12950.000000,0.746886
12955.000000,0.748867
12960.000000,0.750603
12965.000000,0.752209
12970.000000,0.754050
12975.000000,0.755523
12980.000000,0.756917
12985.000000,0.758858
12990.000000,0.760246
12995.000000,0.761336
13000.000000,0.762787
13005.000000,0.764074
13010.000000,0.765143
13015.000000,0.766720
13020.000000,0.767931
13025.000000,0.769032
13030.000000,0.770442
13035.000000,0.771604
13040.000000,0.772567
13045.000000,0.774019
13050.000000,0.775177
13055.000000,0.776251
13060.000000,0.777685
13065.000000,0.778471
13070.000000,0.779772
13075.000000,0.780806
13080.000000,0.782160
13085.000000,0.783334
13090.000000,0.784414
13095.000000,0.785646
13100.000000,0.786795
13105.000000,0.787932
13110.000000,0.789352
13115.000000,0.790476
13120.000000,0.791769
13125.000000,0.793230
13130.000000,0.794027
13135.000000,0.795310
13140.000000,0.796678
13145.000000,0.797809
13150.000000,0.798945
13155.000000,0.800266
13160.000000,0.801464
13165.000000,0.802686
13170.000000,0.804085
13175.000000,0.805131
13180.000000,0.806678
13185.000000,0.808234
13190.000000,0.809206
13195.000000,0.810669
13200.000000,0.812073
13205.000000,0.813305
13210.000000,0.814944
13215.000000,0.816526
13220.000000,0.817601
13225.000000,0.819208
13230.000000,0.820743
13235.000000,0.822103
13240.000000,0.823548
13245.000000,0.825219
13250.000000,0.826409
13255.000000,0.827894
13260.000000,0.829641
13265.000000,0.831130
13270.000000,0.832674
13275.000000,0.834332
13280.000000,0.835551
13285.000000,0.837085
13290.000000,0.838831
13295.000000,0.840113
13300.000000,0.841303
13305.000000,0.842901
13310.000000,0.844356
13315.000000,0.845552
13330.000000,0.849281
13335.000000,0.850647
13340.000000,0.851568
13345.000000,0.852504
13350.000000,0.853596
13355.000000,0.854536
13360.000000,0.855330
13365.000000,0.856397
13370.000000,0.856999
13375.000000,0.857593
13380.000000,0.858297
13385.000000,0.858541
13390.000000,0.859157
13395.000000,0.859539
13400.000000,0.860212
13405.000000,0.860336
13410.000000,0.860985
13415.000000,0.861073
13420.000000,0.861279
13425.000000,0.861699
13430.000000,0.861822
13435.000000,0.861784
13440.000000,0.862243
13445.000000,0.861956
13450.000000,0.862026
13455.000000,0.861942
13460.000000,0.861902
13465.000000,0.861826
13470.000000,0.861703
13475.000000,0.861486
13480.000000,0.861451
13485.000000,0.861365
13490.000000,0.861197
13495.000000,0.861046
13500.000000,0.860700
