# WAVELENGTH_UNIT	AA
# COMPNAME       	HST_NIC3_F175W
# NAME           	HST_NIC3_F175W
# DETECTOR       	photon
#
## WAVELENGTH	None	AA
## THROUGHPUT	None	filter throughput definition
#
WAVELENGTH,THROUGHPUT
9994.999023,0.000000
9995.000000,0.000045
10000.000000,0.000177
10005.000000,0.000132
10010.000000,0.000012
10015.000000,0.000004
10020.000000,0.000104
10025.000000,-0.000095
10030.000000,0.000142
10035.000000,0.000051
10040.000000,0.000008
10045.000000,0.000008
10050.000000,0.000068
10055.000000,-0.000130
10060.000000,0.000025
10065.000000,0.000042
10070.000000,0.000117
10075.000000,-0.000083
10080.000000,-0.000025
10085.000000,0.000015
10090.000000,0.000369
10095.000000,0.000048
10100.000000,0.000041
10105.000000,0.000007
10110.000000,0.000040
10115.000000,0.000040
10120.000000,0.000128
10125.000000,0.000104
10130.000000,0.000167
10135.000000,0.000079
10140.000000,0.000008
10145.000000,0.000158
10150.000000,0.000205
10155.000000,-0.000023
10160.000000,0.000156
10165.000000,0.000093
10170.000000,0.000009
10175.000000,-0.000015
10180.000000,0.000100
10185.000000,0.000155
10190.000000,0.000063
10195.000000,0.000056
10200.000000,0.000048
10205.000000,-0.000038
10210.000000,0.000086
10215.000000,0.000015
10220.000000,0.000045
10225.000000,0.000052
10230.000000,0.000078
10235.000000,0.000059
10240.000000,0.000037
10245.000000,0.000088
10250.000000,-0.000044
10255.000000,0.000063
10260.000000,0.000088
10265.000000,-0.000204
10270.000000,-0.000051
10275.000000,0.000051
10280.000000,-0.000024
10285.000000,0.000007
10290.000000,0.000136
10295.000000,-0.000007
10300.000000,-0.000001
10305.000000,-0.000000
10310.000000,-0.000092
10315.000000,0.000156
10320.000000,0.000318
10325.000000,-0.000021
10330.000000,0.000063
10335.000000,0.000042
10340.000000,0.000042
10345.000000,0.000105
10350.000000,0.000007
10355.000000,0.000125
10360.000000,-0.000014
10365.000000,0.000001
10370.000000,0.000056
10375.000000,0.000241
10380.000000,0.000172
10385.000000,0.000090
10390.000000,0.000000
10395.000000,0.000088
10400.000000,-0.000047
10405.000000,0.000149
10410.000000,-0.000013
10415.000000,0.000067
10420.000000,0.000054
10425.000000,0.000134
10430.000000,0.000053
10435.000000,-0.000007
10440.000000,0.000100
10445.000000,0.000103
10450.000000,-0.000059
10455.000000,-0.000026
10460.000000,0.000103
10465.000000,0.000092
10470.000000,0.000109
10475.000000,0.000052
10480.000000,-0.000026
10485.000000,0.000011
10490.000000,0.000097
10495.000000,0.000039
10500.000000,-0.000039
10505.000000,0.000019
10510.000000,-0.000065
10515.000000,0.000026
10520.000000,0.000064
10525.000000,0.000031
10530.000000,0.000057
10535.000000,0.000013
10540.000000,0.000146
10545.000000,0.000038
10550.000000,0.000038
10555.000000,0.000031
10560.000000,-0.000063
10565.000000,0.000056
10570.000000,0.000031
10575.000000,0.000026
10580.000000,0.000013
10585.000000,0.000101
10590.000000,0.000044
10595.000000,0.000206
10600.000000,0.000062
10605.000000,-0.000066
10610.000000,0.000062
10615.000000,0.000113
10620.000000,0.000154
10625.000000,0.000051
10630.000000,0.000104
10635.000000,0.000027
10640.000000,-0.000030
10645.000000,0.000000
10650.000000,0.000006
10655.000000,0.000112
10660.000000,0.000097
10665.000000,0.000072
10670.000000,0.000112
10675.000000,0.000144
10680.000000,-0.000018
10685.000000,0.000018
10690.000000,0.000054
10695.000000,0.000108
10700.000000,-0.000032
10705.000000,0.000089
10710.000000,0.000012
10715.000000,0.000071
10720.000000,0.000170
10725.000000,0.000035
10730.000000,0.000035
10735.000000,0.000024
10740.000000,0.000065
10745.000000,0.000018
10750.000000,0.000082
10755.000000,0.000064
10760.000000,0.000169
10765.000000,0.000117
10770.000000,0.000087
10775.000000,0.000192
10780.000000,0.000058
10785.000000,0.000000
10790.000000,0.000012
10795.000000,-0.000000
10800.000000,0.000012
10805.000000,0.000070
10810.000000,0.000086
10815.000000,-0.000016
10820.000000,0.000007
10825.000000,0.000036
10830.000000,-0.000004
10835.000000,-0.000000
10840.000000,0.000006
10845.000000,0.000116
10850.000000,0.000074
10855.000000,0.000091
10860.000000,0.000057
10865.000000,0.000011
10870.000000,0.000085
10875.000000,0.000011
10880.000000,0.000023
10885.000000,-0.000107
10890.000000,0.000101
10895.000000,0.000095
10900.000000,0.000140
10905.000000,0.000065
10910.000000,0.000095
10915.000000,0.000100
10920.000000,0.000117
10925.000000,0.000039
10930.000000,0.000095
10935.000000,0.000067
10940.000000,0.000189
10945.000000,0.000144
10950.000000,0.000170
10955.000000,0.000149
10960.000000,0.000116
10965.000000,0.000072
10970.000000,0.000138
10975.000000,0.000071
10980.000000,0.000032
10985.000000,0.000142
10990.000000,0.000121
10995.000000,0.000006
11000.000000,0.000137
11005.000000,0.000158
11010.000000,0.000049
11015.000000,0.000109
11020.000000,0.000065
11025.000000,0.000076
11030.000000,0.000141
11035.000000,0.000222
11040.000000,0.000103
11045.000000,0.000179
11050.000000,0.000114
11055.000000,0.000103
11060.000000,0.000146
11065.000000,0.000131
11070.000000,0.000184
11075.000000,0.000179
11080.000000,0.000173
11085.000000,0.000195
11090.000000,0.000173
11095.000000,0.000179
11100.000000,0.000168
11105.000000,0.000152
11110.000000,0.000214
11115.000000,0.000114
11120.000000,0.000171
11125.000000,0.000230
11130.000000,0.000139
11135.000000,0.000146
11140.000000,0.000213
11145.000000,0.000187
11150.000000,0.000171
11155.000000,0.000101
11160.000000,0.000139
11165.000000,0.000181
11170.000000,0.000165
11175.000000,0.000203
11180.000000,0.000224
11185.000000,0.000312
11190.000000,0.000240
11195.000000,0.000229
11200.000000,0.000238
11205.000000,0.000208
11210.000000,0.000291
11215.000000,0.000243
11220.000000,0.000270
11225.000000,0.000171
11230.000000,0.000288
11235.000000,0.000250
11240.000000,0.000266
11245.000000,0.000371
11250.000000,0.000343
11255.000000,0.000297
11260.000000,0.000328
11265.000000,0.000386
11270.000000,0.000386
11275.000000,0.000374
11280.000000,0.000363
11285.000000,0.000390
11290.000000,0.000478
11295.000000,0.000414
11300.000000,0.000460
11305.000000,0.000371
11310.000000,0.000443
11315.000000,0.000417
11320.000000,0.000480
11325.000000,0.000455
11330.000000,0.000562
11335.000000,0.000527
11340.000000,0.000534
11345.000000,0.000472
11350.000000,0.000576
11355.000000,0.000547
11360.000000,0.000508
11365.000000,0.000689
11370.000000,0.000685
11375.000000,0.000711
11380.000000,0.000683
11385.000000,0.000765
11390.000000,0.000822
11395.000000,0.000812
11400.000000,0.000822
11405.000000,0.000750
11410.000000,0.000792
11415.000000,0.000853
11420.000000,0.000914
11425.000000,0.000914
11430.000000,0.000914
11435.000000,0.000948
11440.000000,0.001025
11445.000000,0.001015
11450.000000,0.001047
11455.000000,0.001129
11460.000000,0.001133
11465.000000,0.001199
11470.000000,0.001203
11475.000000,0.001287
11480.000000,0.001257
11485.000000,0.001310
11490.000000,0.001332
11495.000000,0.001355
11500.000000,0.001595
11505.000000,0.001531
11510.000000,0.001428
11515.000000,0.001628
11520.000000,0.001700
11525.000000,0.001704
11530.000000,0.001753
11535.000000,0.001788
11540.000000,0.001842
11545.000000,0.001855
11550.000000,0.002015
11555.000000,0.002045
11560.000000,0.002096
11565.000000,0.002167
11570.000000,0.002288
11575.000000,0.002349
11580.000000,0.002464
11585.000000,0.002520
11590.000000,0.002667
11595.000000,0.002692
11600.000000,0.002817
11605.000000,0.002958
11610.000000,0.003090
11615.000000,0.003165
11620.000000,0.003337
11625.000000,0.003424
11630.000000,0.003649
11635.000000,0.003822
11640.000000,0.003954
11645.000000,0.004086
11650.000000,0.004348
11655.000000,0.004486
11660.000000,0.004780
11665.000000,0.004962
11670.000000,0.005291
11675.000000,0.005538
11680.000000,0.005823
11685.000000,0.006061
11690.000000,0.006475
11695.000000,0.006834
11700.000000,0.007162
11705.000000,0.007586
11710.000000,0.007947
11715.000000,0.008378
11720.000000,0.008815
11725.000000,0.009294
11730.000000,0.009803
11735.000000,0.010401
11740.000000,0.010895
11745.000000,0.011518
11750.000000,0.012114
11755.000000,0.012656
11760.000000,0.013416
11765.000000,0.014162
11770.000000,0.014942
11775.000000,0.015719
11780.000000,0.016479
11785.000000,0.017231
11790.000000,0.018173
11795.000000,0.019066
11800.000000,0.020046
11805.000000,0.020957
11810.000000,0.021942
11815.000000,0.023066
11820.000000,0.024096
11825.000000,0.025290
11830.000000,0.026459
11835.000000,0.027693
11840.000000,0.029070
11845.000000,0.030469
11850.000000,0.031911
11855.000000,0.033421
11860.000000,0.035046
11865.000000,0.036775
11870.000000,0.038461
11875.000000,0.040505
11880.000000,0.042454
11885.000000,0.044750
11890.000000,0.047147
11895.000000,0.049679
11900.000000,0.052397
11905.000000,0.055215
11910.000000,0.058361
11915.000000,0.061915
11920.000000,0.065633
11925.000000,0.069753
11930.000000,0.074222
11935.000000,0.078811
11940.000000,0.083872
11945.000000,0.089484
11950.000000,0.095815
11955.000000,0.102600
11960.000000,0.110157
11965.000000,0.118057
11970.000000,0.126697
11975.000000,0.136045
11980.000000,0.146675
11985.000000,0.158440
11990.000000,0.171534
11995.000000,0.183829
12000.000000,0.198405
12005.000000,0.213873
12010.000000,0.230600
12015.000000,0.249234
12020.000000,0.269904
12025.000000,0.290382
12030.000000,0.312171
12035.000000,0.333992
12040.000000,0.357732
12045.000000,0.382846
12050.000000,0.409865
12055.000000,0.436613
12060.000000,0.462279
12065.000000,0.488144
12070.000000,0.513272
12075.000000,0.539561
12080.000000,0.565962
12085.000000,0.589787
12090.000000,0.612448
12095.000000,0.633335
12100.000000,0.653207
12105.000000,0.672160
12110.000000,0.690903
12115.000000,0.707769
12120.000000,0.721856
12125.000000,0.735520
12130.000000,0.747157
12135.000000,0.757992
12140.000000,0.768700
12145.000000,0.778552
12150.000000,0.787140
12155.000000,0.794275
12160.000000,0.801469
12165.000000,0.807592
12170.000000,0.813471
12175.000000,0.818689
12180.000000,0.823667
12185.000000,0.827571
12190.000000,0.830675
12195.000000,0.833524
12200.000000,0.835856
12205.000000,0.837381
12210.000000,0.838426
12215.000000,0.838353
12220.000000,0.837832
12225.000000,0.836503
12230.000000,0.834564
12235.000000,0.831887
12240.000000,0.828164
12245.000000,0.824362
12250.000000,0.819698
12255.000000,0.814749
12260.000000,0.808895
12265.000000,0.803160
12270.000000,0.796428
12275.000000,0.789564
12280.000000,0.783392
12285.000000,0.775471
12290.000000,0.769348
12295.000000,0.762505
12300.000000,0.755547
12305.000000,0.748788
12310.000000,0.742682
12315.000000,0.736977
12320.000000,0.731249
12325.000000,0.725762
12330.000000,0.720844
12335.000000,0.715901
12340.000000,0.712557
12345.000000,0.709190
12350.000000,0.706514
12355.000000,0.704112
12360.000000,0.702313
12365.000000,0.700952
12370.000000,0.700352
12375.000000,0.700123
12380.000000,0.700604
12385.000000,0.701409
12390.000000,0.702796
12395.000000,0.704834
12400.000000,0.707265
12405.000000,0.709875
12410.000000,0.713290
12415.000000,0.716821
12420.000000,0.720834
12425.000000,0.725460
12430.000000,0.730275
12435.000000,0.735231
12440.000000,0.740269
12445.000000,0.745681
12450.000000,0.751271
12455.000000,0.757167
12460.000000,0.762899
12465.000000,0.768546
12470.000000,0.774062
12475.000000,0.779873
12480.000000,0.785086
12485.000000,0.790710
12490.000000,0.795722
12495.000000,0.800535
12500.000000,0.805204
12505.000000,0.809345
12510.000000,0.813221
12515.000000,0.816784
12520.000000,0.820358
12525.000000,0.823109
12530.000000,0.825685
12535.000000,0.827758
12540.000000,0.829493
12545.000000,0.831011
12550.000000,0.832200
12555.000000,0.832991
12560.000000,0.833376
12565.000000,0.833743
12570.000000,0.833781
12575.000000,0.833618
12580.000000,0.833379
12585.000000,0.832690
12590.000000,0.832098
12595.000000,0.831477
12600.000000,0.830723
12605.000000,0.829686
12610.000000,0.828969
12615.000000,0.827956
12620.000000,0.827020
12625.000000,0.825901
12630.000000,0.825132
12635.000000,0.824435
12640.000000,0.823494
12645.000000,0.822767
12650.000000,0.822199
12655.000000,0.821628
12660.000000,0.821239
12665.000000,0.820713
12670.000000,0.820295
12675.000000,0.819897
12680.000000,0.819501
12685.000000,0.819308
12690.000000,0.819350
12695.000000,0.819122
12700.000000,0.818806
12705.000000,0.818779
12710.000000,0.818436
12715.000000,0.818377
12720.000000,0.818205
12725.000000,0.818169
12730.000000,0.818169
12735.000000,0.817904
12740.000000,0.817613
12745.000000,0.817465
12750.000000,0.817177
12755.000000,0.816896
12760.000000,0.816656
12765.000000,0.816188
12770.000000,0.815610
12775.000000,0.815114
12780.000000,0.814641
12785.000000,0.813948
12790.000000,0.813590
12795.000000,0.812804
12800.000000,0.812532
12805.000000,0.811861
12810.000000,0.811339
12815.000000,0.810919
12820.000000,0.810274
12825.000000,0.809922
12830.000000,0.809688
12835.000000,0.809089
12840.000000,0.808985
12845.000000,0.808717
12850.000000,0.808666
12855.000000,0.808501
12860.000000,0.808438
12865.000000,0.808528
12870.000000,0.808886
12875.000000,0.809141
12880.000000,0.809486
12885.000000,0.810234
12890.000000,0.810745
12895.000000,0.811477
12900.000000,0.812374
12905.000000,0.813150
12910.000000,0.814114
12915.000000,0.815109
12920.000000,0.816194
12925.000000,0.817704
12930.000000,0.818713
12935.000000,0.820172
12940.000000,0.821371
12945.000000,0.822830
12950.000000,0.824166
12955.000000,0.825609
12960.000000,0.827026
12965.000000,0.828600
12970.000000,0.829811
12975.000000,0.830957
12980.000000,0.832452
12985.000000,0.833302
12990.000000,0.834389
12995.000000,0.835484
13000.000000,0.836140
13005.000000,0.836721
13010.000000,0.837746
13015.000000,0.837848
13020.000000,0.838425
13025.000000,0.838377
13030.000000,0.838690
13035.000000,0.838504
13040.000000,0.837866
13045.000000,0.837384
13050.000000,0.836782
13055.000000,0.835913
13060.000000,0.834834
13065.000000,0.833694
13070.000000,0.832271
13075.000000,0.830930
13080.000000,0.829320
13085.000000,0.827461
13090.000000,0.825726
13095.000000,0.823472
13100.000000,0.821498
13105.000000,0.819384
13110.000000,0.817100
13115.000000,0.814754
13120.000000,0.812015
13125.000000,0.809511
13130.000000,0.807290
13135.000000,0.804666
13140.000000,0.802115
13145.000000,0.799635
13150.000000,0.796664
13155.000000,0.794015
13160.000000,0.791624
13165.000000,0.789010
13170.000000,0.786518
13175.000000,0.783966
13180.000000,0.781471
13185.000000,0.779011
13190.000000,0.776343
13195.000000,0.774195
13200.000000,0.771982
13205.000000,0.769672
13210.000000,0.767672
13215.000000,0.765566
13220.000000,0.763387
13225.000000,0.761367
13230.000000,0.759479
13235.000000,0.757686
13240.000000,0.755914
13245.000000,0.754240
13250.000000,0.752496
13255.000000,0.751284
13260.000000,0.749559
13265.000000,0.748221
13270.000000,0.747095
13275.000000,0.745655
13280.000000,0.744541
13285.000000,0.743375
13290.000000,0.742222
13295.000000,0.741427
13300.000000,0.740869
13305.000000,0.740072
13310.000000,0.739282
13315.000000,0.738611
13320.000000,0.738119
13325.000000,0.737727
13330.000000,0.737149
13335.000000,0.736997
13340.000000,0.736910
13345.000000,0.736524
13350.000000,0.736832
13355.000000,0.736785
13360.000000,0.736961
13365.000000,0.737317
13370.000000,0.737741
13375.000000,0.738186
13380.000000,0.738899
13385.000000,0.739372
13390.000000,0.739980
13395.000000,0.741037
13400.000000,0.741917
13405.000000,0.743140
13410.000000,0.744221
13415.000000,0.745606
13420.000000,0.747007
13425.000000,0.748151
13430.000000,0.750068
13435.000000,0.751561
13440.000000,0.753492
13445.000000,0.755432
13450.000000,0.757540
13455.000000,0.759442
13460.000000,0.761774
13465.000000,0.763900
13470.000000,0.766549
13475.000000,0.768891
13480.000000,0.771358
13485.000000,0.773861
13490.000000,0.776379
13495.000000,0.779354
13500.000000,0.782027
13505.000000,0.784696
13510.000000,0.787633
13515.000000,0.790494
13520.000000,0.793472
13525.000000,0.796252
13530.000000,0.799405
13535.000000,0.802345
13540.000000,0.805202
13545.000000,0.808156
13550.000000,0.811080
13555.000000,0.813990
13560.000000,0.817046
13565.000000,0.819691
13570.000000,0.822189
13575.000000,0.824717
13580.000000,0.826935
13585.000000,0.829628
13590.000000,0.831838
13595.000000,0.834312
13600.000000,0.836348
13605.000000,0.838452
13610.000000,0.840607
13615.000000,0.842659
13620.000000,0.844389
13625.000000,0.846040
13630.000000,0.847418
13635.000000,0.848598
13640.000000,0.849821
13645.000000,0.851015
13650.000000,0.851884
13655.000000,0.852988
13660.000000,0.853478
13665.000000,0.854074
13670.000000,0.854486
13675.000000,0.854902
13680.000000,0.855166
13685.000000,0.855276
13690.000000,0.855047
13695.000000,0.854631
13700.000000,0.854224
13705.000000,0.853639
13710.000000,0.852960
13715.000000,0.852148
13720.000000,0.851089
13725.000000,0.849981
13730.000000,0.848980
13735.000000,0.847764
13740.000000,0.846437
13745.000000,0.845054
13750.000000,0.843782
13755.000000,0.842498
13760.000000,0.841265
13765.000000,0.840007
13770.000000,0.838728
13775.000000,0.837550
13780.000000,0.836893
13785.000000,0.835440
13790.000000,0.834611
13795.000000,0.833772
13800.000000,0.832785
13805.000000,0.832572
13810.000000,0.831902
13815.000000,0.831430
13820.000000,0.831103
13825.000000,0.830847
13830.000000,0.830805
13835.000000,0.830756
13840.000000,0.830634
13845.000000,0.830772
13850.000000,0.830847
13855.000000,0.831260
13860.000000,0.831366
13865.000000,0.831842
13870.000000,0.832141
13875.000000,0.832558
13880.000000,0.832942
13885.000000,0.833528
13890.000000,0.834023
13895.000000,0.834531
13900.000000,0.834983
13905.000000,0.835367
13910.000000,0.835900
13915.000000,0.836555
13920.000000,0.836953
13925.000000,0.837414
13930.000000,0.837968
13935.000000,0.838341
13940.000000,0.838530
13945.000000,0.839126
13950.000000,0.839294
13955.000000,0.839922
13960.000000,0.840149
13965.000000,0.840401
13970.000000,0.840764
13975.000000,0.840838
13980.000000,0.840910
13985.000000,0.841104
13990.000000,0.841351
13995.000000,0.841241
14000.000000,0.841750
14005.000000,0.841577
14010.000000,0.841685
14015.000000,0.841672
14020.000000,0.841824
14025.000000,0.841983
14030.000000,0.841907
14035.000000,0.842215
14040.000000,0.841977
14045.000000,0.842130
14050.000000,0.842371
14055.000000,0.842501
14060.000000,0.842502
14065.000000,0.842653
14070.000000,0.842837
14075.000000,0.842953
14080.000000,0.843020
14085.000000,0.843194
14090.000000,0.843501
14095.000000,0.843774
14100.000000,0.843948
14105.000000,0.844362
14110.000000,0.844735
14115.000000,0.845052
14120.000000,0.845347
14125.000000,0.845879
14130.000000,0.846303
14135.000000,0.846801
14140.000000,0.847183
14145.000000,0.847634
14150.000000,0.848142
14155.000000,0.848568
14160.000000,0.849004
14165.000000,0.849563
14170.000000,0.850035
14175.000000,0.850529
14180.000000,0.851089
14185.000000,0.851394
14190.000000,0.851975
14195.000000,0.852427
14200.000000,0.852617
14205.000000,0.853183
14210.000000,0.853172
14215.000000,0.853475
14220.000000,0.853680
14225.000000,0.853781
14230.000000,0.854021
14235.000000,0.853822
14240.000000,0.853731
14245.000000,0.853818
14250.000000,0.853421
14255.000000,0.853120
14260.000000,0.852911
14265.000000,0.852478
14270.000000,0.852020
14275.000000,0.851487
14280.000000,0.850809
14285.000000,0.849922
14290.000000,0.849135
14295.000000,0.847987
14300.000000,0.847172
14305.000000,0.846084
14310.000000,0.844764
14315.000000,0.843667
14320.000000,0.842088
14325.000000,0.840778
14330.000000,0.839361
14335.000000,0.837835
14340.000000,0.836483
14345.000000,0.834936
14350.000000,0.833223
14355.000000,0.831522
14360.000000,0.829769
14365.000000,0.828016
14370.000000,0.826344
14375.000000,0.824526
14380.000000,0.822541
14385.000000,0.820911
14390.000000,0.818900
14395.000000,0.817347
14400.000000,0.815765
14405.000000,0.813908
14410.000000,0.812478
14415.000000,0.810649
14420.000000,0.808881
14425.000000,0.807681
14430.000000,0.806134
14435.000000,0.804629
14440.000000,0.803344
14445.000000,0.801821
14450.000000,0.800663
14455.000000,0.799491
14460.000000,0.798400
14465.000000,0.797358
14470.000000,0.796443
14475.000000,0.795370
